Day fraction since midnight on 	photometer (mg/L)	photometer (volts)	Source pressure (Pa)
0.5659982095	5.4977459908	2.3384852409	114766.8046875000
start
0.5660560690	5.5109353065	2.3335514069	114751.7109375000
0.5661139800	5.5047168732	2.3358767033	114756.4609375000
0.5661718344	6.4177370071	2.0098619461	114737.2187500000
0.5662297108	9.2236814499	1.1794068813	114740.3281250000
0.5662875818	9.1748609543	1.1919068098	114750.0390625000
0.5663454562	8.6877527237	1.3201161623	114713.1328125000
0.5664033142	8.9427576065	1.2521986961	114725.8593750000
0.5664611813	8.9618644714	1.2471810579	114724.9296875000
0.5665190612	4.2653870583	2.8302247524	114713.7421875000
0.5665769385	2.7837436199	3.5099592209	114731.6015625000
start
0.5666347894	2.7905805111	3.5065793991	114727.9765625000
0.5666926536	2.7991232872	3.5023596287	114725.8125000000
0.5667505233	2.8096702099	3.4971549511	114711.7265625000
0.5668084058	2.8219048977	3.4911243916	114706.4765625000
0.5668662846	2.8392498493	3.4825880527	114693.1250000000
0.5669241483	2.8649885654	3.4699485302	114690.2109375000
0.5669820004	2.9130833149	3.4464199543	114690.6093750000
0.5670399078	3.1095275879	3.3515136242	114682.8046875000
0.5670977759	3.6239197254	3.1118755341	114670.9375000000
0.5671556417	4.2165155411	2.8510365486	114684.1718750000
0.5672134911	4.8346610069	2.5953342915	114688.2421875000
0.5672713786	5.4769916534	2.3462624550	114668.5468750000
0.5673292405	6.1362714767	2.1071293354	114671.7812500000
0.5673871139	6.8120689392	1.8782299757	114667.0312500000
0.5674449726	7.4918417931	1.6634517908	114649.6093750000
0.5675028359	8.1692762375	1.4638088942	114659.0000000000
0.5675607191	8.8605852127	1.2738906145	114634.0546875000
0.5676185871	9.5401649475	1.0998753309	114650.0859375000
0.5676764453	10.2099456787	0.9398409724	114637.3437500000
0.5677343122	10.8619241714	0.7942748666	114653.3203125000
0.5677921966	11.5055055618	0.6598243117	114642.1562500000
0.5678500628	12.1509351730	0.5336157084	114627.9296875000
0.5679079243	12.7792139053	0.4185331166	114633.4062500000
0.5679657579	13.3848218918	0.3144088089	114633.0625000000
0.5680236292	13.9727115631	0.2193351388	114624.0312500000
0.5680815014	14.5421867371	0.1325492412	114605.0078125000
0.5681393691	15.1099948883	0.0509217344	114609.6250000000
0.5681972247	15.6517553329	-0.0226506293	114605.7812500000
0.5682551093	16.1721954346	-0.0895787105	114610.1250000000
0.5683129690	16.6873149872	-0.1523948610	114594.7890625000
0.5683708360	17.2051773071	-0.2122859508	114619.8437500000
0.5684286969	17.6666336060	-0.2630375624	114609.2109375000
0.5684865666	18.1431121826	-0.3129797280	114606.3671875000
0.5685444398	18.6017074585	-0.3587957025	114599.1718750000
0.5686023072	19.0221080780	-0.3989432156	114625.8359375000
0.5686601781	19.4788398743	-0.4406417608	114637.6250000000
0.5687180523	19.8867416382	-0.4762657285	114646.6093750000
0.5687759303	20.2913246155	-0.5101572275	114647.2656250000
0.5688339122	20.6865425110	-0.5419333577	114663.4296875000
0.5688917673	21.0605316162	-0.5708388090	114685.5390625000
0.5689495224	21.4270153046	-0.5981082320	114650.2265625000
0.5690075060	21.7854862213	-0.6238076687	114653.2812500000
0.5690653729	22.1346836090	-0.6479496360	114672.0390625000
0.5691231261	22.4604091644	-0.6697021723	114698.7421875000
0.5691810063	22.7703857422	-0.6897387505	114707.7421875000
0.5692389830	23.1021652222	-0.7104901671	114706.8125000000
0.5692968448	23.4100189209	-0.7291234732	114719.0625000000
0.5693547330	23.7147579193	-0.7469975948	114729.6562500000
0.5694125956	24.0004901886	-0.7632566690	114706.6718750000
0.5694704682	24.2922630310	-0.7793748379	114714.8984375000
0.5695283249	24.5573043823	-0.7936038375	114735.4687500000
0.5695861967	24.8233852386	-0.8075047135	114759.0625000000
0.5696440708	25.1000537872	-0.8215618730	114747.2734375000
0.5697019426	25.3475303650	-0.8338021040	114744.0546875000
0.5697598059	25.6001758575	-0.8459814787	114758.6875000000
0.5698176816	25.8343658447	-0.8569926620	114756.5156250000
0.5698755476	26.0599117279	-0.8673501611	114752.5703125000
0.5699334045	26.2987766266	-0.8780611157	114754.2031250000
0.5699912810	26.5351409912	-0.8884046674	114773.5937500000
0.5700491558	26.7529602051	-0.8977169991	114771.1875000000
0.5701070112	26.9621200562	-0.9064654708	114791.0781250000
0.5701649016	27.1563892365	-0.9144245982	114790.5703125000
