Day fraction since midnight on 	photometer (mg/L)	photometer (volts)	Source pressure (Pa)
0.6619474740	2.7931225300	3.5053234100	110777.3437500000
start
0.6620053478	2.7869777679	3.5083601475	110773.1796875000
0.6620632105	2.7878797054	3.5079143047	110748.7343750000
0.6621211010	2.7859838009	3.5088515282	110755.9687500000
0.6621789518	2.8232951164	3.4904396534	110767.0625000000
0.6622368373	6.3988413811	2.0163042545	110751.4765625000
0.6622947009	12.8819084167	0.4004179537	110765.8437500000
0.6623526836	17.5354976654	-0.2488586903	110739.2031250000
0.6624104316	20.7203178406	-0.5445895195	110741.5703125000
0.6624684163	23.3985595703	-0.7284403443	0.0000000000
0.6625262851	25.5434837341	-0.8432759047	110742.9765625000
